File: csv/EIS/EIS_discharge_cycle_1.csv
Frequency (Hz),Zreal,Zimag
0.001,9.9e+37,9.9e+37
0.008,9.9e+37,9.9e+37
0.06,9.9e+37,9.9e+37
0.464,9.9e+37,9.9e+37
3.594,-31.8768,194.461
27.826,-1.89101,27.2355
215.44,-0.506684,3.75018
1668.1,-0.333661,0.518572
12915.0,-0.30538,0.0664405
100000.0,-0.304688,-0.0257829